Brown University Keck/NASA Relab Spectrum LR-CMP-106/BKR1LR106
Wavelength(micron)	Reflectance
0.3	0.15986
0.305	0.16309
0.31	0.16725
0.315	0.16916
0.32	0.17270
0.325	0.17697
0.33	0.17998
0.335	0.18487
0.34	0.18966
0.345	0.19459
0.35	0.19910
0.355	0.20420
0.36	0.20980
0.365	0.21331
0.37	0.21742
0.375	0.22108
0.38	0.22515
0.385	0.22862
0.39	0.23185
0.395	0.23524
0.4	0.23797
0.405	0.24076
0.41	0.24326
0.415	0.24547
0.42	0.24733
0.425	0.24933
0.43	0.25121
0.435	0.25330
0.44	0.25463
0.445	0.25603
0.45	0.25749
0.455	0.25882
0.46	0.26057
0.465	0.26184
0.47	0.26344
0.475	0.26469
0.48	0.26619
0.485	0.26774
0.49	0.26888
0.495	0.27039
0.5	0.27169
0.505	0.27248
0.51	0.27461
0.515	0.27644
0.52	0.27832
0.525	0.27941
0.53	0.28087
0.535	0.28237
0.54	0.28362
0.545	0.28482
0.55	0.28583
0.555	0.28740
0.56	0.28869
0.565	0.28985
0.57	0.29158
0.575	0.29317
0.58	0.29394
0.585	0.29544
0.59	0.29630
0.595	0.29708
0.6	0.29826
0.605	0.29960
0.61	0.30058
0.615	0.30195
0.62	0.30297
0.625	0.30410
0.63	0.30489
0.635	0.30594
0.64	0.30706
0.645	0.30781
0.65	0.30868
0.655	0.30916
0.66	0.31015
0.665	0.31085
0.67	0.31170
0.675	0.31261
0.68	0.31343
0.685	0.31405
0.69	0.31387
0.695	0.31485
0.7	0.31513
0.705	0.31614
0.71	0.31666
0.715	0.31712
0.72	0.31718
0.725	0.31734
0.73	0.31734
0.735	0.31789
0.74	0.31764
0.745	0.31771
0.75	0.31814
0.755	0.31767
0.76	0.31799
0.765	0.31724
0.77	0.31710
0.775	0.31650
0.78	0.31607
0.785	0.31543
0.79	0.31417
0.795	0.31385
0.8	0.31190
0.805	0.31071
0.81	0.31006
0.815	0.30853
0.82	0.30696
0.825	0.30587
0.83	0.30412
0.835	0.30284
0.84	0.30154
0.845	0.29980
0.85	0.29878
0.855	0.29634
0.86	0.29463
0.865	0.29343
0.87	0.29187
0.875	0.29008
0.88	0.28901
0.885	0.28770
0.89	0.28674
0.895	0.28526
0.9	0.28455
0.905	0.28345
0.91	0.28301
0.915	0.28168
0.92	0.28171
0.925	0.28137
0.93	0.28141
0.935	0.28108
0.94	0.28091
0.945	0.28100
0.95	0.28144
0.955	0.28152
0.96	0.28234
0.965	0.28290
0.97	0.28360
0.975	0.28450
0.98	0.28511
0.985	0.28650
0.99	0.28781
0.995	0.28856
1	0.28960
1.005	0.29060
1.01	0.29235
1.015	0.29377
1.02	0.29465
1.025	0.29654
1.03	0.29788
1.035	0.29896
1.04	0.30001
1.045	0.30113
1.05	0.30314
1.055	0.30476
1.06	0.30604
1.065	0.30691
1.07	0.30846
1.075	0.30997
1.08	0.31161
1.085	0.31286
1.09	0.31442
1.095	0.31589
1.1	0.31772
1.105	0.31940
1.11	0.31995
1.115	0.32120
1.12	0.32212
1.125	0.32358
1.13	0.32527
1.135	0.32624
1.14	0.32768
1.145	0.32853
1.15	0.32938
1.155	0.33129
1.16	0.33236
1.165	0.33326
1.17	0.33423
1.175	0.33543
1.18	0.33556
1.185	0.33647
1.19	0.33777
1.195	0.33813
1.2	0.33907
1.205	0.34014
1.21	0.34079
1.215	0.34125
1.22	0.34206
1.225	0.34269
1.23	0.34426
1.235	0.34489
1.24	0.34604
1.245	0.34657
1.25	0.34697
1.255	0.34806
1.26	0.34874
1.265	0.35057
1.27	0.35133
1.275	0.35148
1.28	0.35169
1.285	0.35210
1.29	0.35310
1.295	0.35429
1.3	0.35457
1.305	0.35565
1.31	0.35618
1.315	0.35731
1.32	0.35757
1.325	0.35870
1.33	0.35965
1.335	0.36078
1.34	0.36188
1.345	0.36212
1.35	0.36283
1.355	0.36328
1.36	0.36451
1.365	0.36561
1.37	0.36662
1.375	0.36739
1.38	0.36794
1.385	0.36923
1.39	0.36991
1.395	0.37069
1.4	0.37092
1.405	0.37232
1.41	0.37340
1.415	0.37343
1.42	0.37490
1.425	0.37511
1.43	0.37609
1.435	0.37716
1.44	0.37744
1.445	0.37785
1.45	0.37905
1.455	0.37961
1.46	0.38024
1.465	0.38064
1.47	0.38106
1.475	0.38201
1.48	0.38338
1.485	0.38302
1.49	0.38369
1.495	0.38410
1.5	0.38474
1.505	0.38530
1.51	0.38565
1.515	0.38629
1.52	0.38665
1.525	0.38720
1.53	0.38686
1.535	0.38758
1.54	0.38809
1.545	0.38802
1.55	0.38846
1.555	0.38857
1.56	0.38936
1.565	0.38957
1.57	0.38931
1.575	0.38973
1.58	0.38916
1.585	0.39002
1.59	0.38939
1.595	0.38978
1.6	0.39015
1.605	0.39008
1.61	0.39046
1.615	0.39057
1.62	0.39089
1.625	0.39009
1.63	0.38991
1.635	0.39062
1.64	0.39057
1.645	0.39066
1.65	0.39092
1.655	0.39089
1.66	0.39087
1.665	0.39092
1.67	0.39120
1.675	0.39075
1.68	0.39140
1.685	0.39073
1.69	0.39079
1.695	0.39023
1.7	0.38975
1.705	0.39022
1.71	0.39030
1.715	0.39035
1.72	0.39107
1.725	0.39093
1.73	0.39100
1.735	0.39083
1.74	0.39066
1.745	0.39050
1.75	0.39023
1.755	0.38898
1.76	0.38919
1.765	0.38919
1.77	0.38922
1.775	0.38892
1.78	0.38926
1.785	0.38926
1.79	0.38977
1.795	0.38965
1.8	0.38832
1.805	0.38884
1.81	0.38947
1.815	0.38921
1.82	0.38908
1.825	0.38854
1.83	0.38871
1.835	0.38916
1.84	0.38935
1.845	0.38960
1.85	0.39062
1.855	0.39063
1.86	0.38974
1.865	0.39068
1.87	0.39172
1.875	0.39146
1.88	0.39150
1.885	0.39275
1.89	0.39141
1.895	0.39053
1.9	0.39100
1.905	0.39132
1.91	0.39103
1.915	0.39224
1.92	0.39262
1.925	0.39419
1.93	0.39245
1.935	0.39260
1.94	0.39270
1.945	0.39297
1.95	0.39302
1.955	0.39347
1.96	0.39283
1.965	0.39353
1.97	0.39374
1.975	0.39481
1.98	0.39464
1.985	0.39553
1.99	0.39542
1.995	0.39644
2	0.39628
2.005	0.39772
2.01	0.39842
2.015	0.39916
2.02	0.39942
2.025	0.40080
2.03	0.39994
2.035	0.40084
2.04	0.40139
2.045	0.40187
2.05	0.40256
2.055	0.40343
2.06	0.40380
2.065	0.40415
2.07	0.40472
2.075	0.40521
2.08	0.40611
2.085	0.40643
2.09	0.40680
2.095	0.40813
2.1	0.40942
2.105	0.40945
2.11	0.41130
2.115	0.41096
2.12	0.41127
2.125	0.41196
2.13	0.41272
2.135	0.41312
2.14	0.41399
2.145	0.41393
2.15	0.41414
2.155	0.41417
2.16	0.41573
2.165	0.41561
2.17	0.41582
2.175	0.41647
2.18	0.41792
2.185	0.41836
2.19	0.41861
2.195	0.41932
2.2	0.41976
2.205	0.42094
2.21	0.42167
2.215	0.42280
2.22	0.42319
2.225	0.42473
2.23	0.42444
2.235	0.42551
2.24	0.42645
2.245	0.42743
2.25	0.42819
2.255	0.42900
2.26	0.42993
2.265	0.43096
2.27	0.43119
2.275	0.43231
2.28	0.43377
2.285	0.43370
2.29	0.43483
2.295	0.43639
2.3	0.43786
2.305	0.43872
2.31	0.43859
2.315	0.43917
2.32	0.43921
2.325	0.44001
2.33	0.44046
2.335	0.44118
2.34	0.44115
2.345	0.44147
2.35	0.44273
2.355	0.44310
2.36	0.44304
2.365	0.44352
2.37	0.44352
2.375	0.44389
2.38	0.44535
2.385	0.44482
2.39	0.44641
2.395	0.44608
2.4	0.44780
2.405	0.44838
2.41	0.44910
2.415	0.44922
2.42	0.45078
2.425	0.45142
2.43	0.45184
2.435	0.45100
2.44	0.45233
2.445	0.45139
2.45	0.45194
2.455	0.45363
2.46	0.45353
2.465	0.45478
2.47	0.45257
2.475	0.45483
2.48	0.45639
2.485	0.45704
2.49	0.45709
2.495	0.45774
2.5	0.45814
2.505	0.45833
2.51	0.45935
2.515	0.45925
2.52	0.45908
2.525	0.45939
2.53	0.46057
2.535	0.45987
2.54	0.46028
2.545	0.46312
2.55	0.46045
2.5519	0.46055
2.5531	0.46075
2.5544	0.46088
2.5557	0.46107
2.5569	0.46135
2.5582	0.46153
2.5594	0.46167
2.5607	0.46192
2.562	0.46218
2.5632	0.46235
2.5645	0.46255
2.5658	0.46266
2.5671	0.46271
2.5683	0.46286
2.5696	0.46312
2.5709	0.46320
2.5721	0.46339
2.5734	0.46380
2.5747	0.46387
2.576	0.46407
2.5773	0.46429
2.5785	0.46428
2.5798	0.46447
2.5811	0.46469
2.5824	0.46482
2.5837	0.46528
2.585	0.46563
2.5863	0.46552
2.5875	0.46568
2.5888	0.46584
2.5901	0.46595
2.5914	0.46606
2.5927	0.46632
2.594	0.46700
2.5953	0.46757
2.5966	0.46725
2.5979	0.46695
2.5992	0.46687
2.6005	0.46710
2.6018	0.46750
2.6031	0.46780
2.6044	0.46812
2.6058	0.46857
2.6071	0.46851
2.6084	0.46844
2.6097	0.46855
2.611	0.46860
2.6123	0.46863
2.6136	0.46878
2.6149	0.46895
2.6163	0.46942
2.6176	0.46969
2.6189	0.46970
2.6202	0.47015
2.6216	0.47016
2.6229	0.46994
2.6242	0.47007
2.6255	0.47030
2.6269	0.47062
2.6282	0.47061
2.6295	0.47095
2.6309	0.47140
2.6322	0.47116
2.6335	0.47125
2.6349	0.47151
2.6362	0.47146
2.6376	0.47155
2.6389	0.47167
2.6402	0.47182
2.6416	0.47200
2.6429	0.47219
2.6443	0.47231
2.6456	0.47259
2.647	0.47269
2.6483	0.47269
2.6497	0.47274
2.651	0.47297
2.6524	0.47337
2.6538	0.47341
2.6551	0.47337
2.6565	0.47359
2.6578	0.47359
2.6592	0.47381
2.6606	0.47395
2.6619	0.47401
2.6633	0.47407
2.6647	0.47456
2.666	0.47491
2.6674	0.47479
2.6688	0.47444
2.6701	0.47489
2.6715	0.47486
2.6729	0.47414
2.6743	0.47410
2.6757	0.47442
2.677	0.47462
2.6784	0.47444
2.6798	0.47450
2.6812	0.47429
2.6826	0.47421
2.684	0.47425
2.6854	0.47417
2.6868	0.47407
2.6881	0.47401
2.6895	0.47396
2.6909	0.47385
2.6923	0.47389
2.6937	0.47405
2.6951	0.47386
2.6965	0.47339
2.6979	0.47307
2.6993	0.47294
2.7008	0.47293
2.7021	0.47276
2.7036	0.47253
2.705	0.47233
2.7064	0.47206
2.7078	0.47191
2.7092	0.47193
2.7106	0.47187
2.7121	0.47146
2.7135	0.47086
2.7149	0.47051
2.7163	0.47026
2.7177	0.47018
2.7192	0.47020
2.7206	0.47020
2.722	0.46935
2.7234	0.46879
2.7249	0.46851
2.7263	0.46785
2.7277	0.46717
2.7292	0.46679
2.7306	0.46636
2.7321	0.46584
2.7335	0.46555
2.7349	0.46513
2.7364	0.46435
2.7378	0.46392
2.7393	0.46379
2.7407	0.46336
2.7422	0.46253
2.7436	0.46169
2.7451	0.46111
2.7465	0.46059
2.748	0.45995
2.7494	0.45942
2.7509	0.45891
2.7524	0.45835
2.7538	0.45787
2.7553	0.45764
2.7567	0.45692
2.7582	0.45603
2.7597	0.45542
2.7611	0.45500
2.7626	0.45472
2.7641	0.45413
2.7656	0.45348
2.767	0.45304
2.7685	0.45255
2.77	0.45205
2.7715	0.45156
2.773	0.45093
2.7744	0.45041
2.7759	0.44999
2.7774	0.44962
2.7789	0.44920
2.7804	0.44871
2.7819	0.44834
2.7834	0.44791
2.7849	0.44747
2.7864	0.44730
2.7879	0.44705
2.7894	0.44649
2.7909	0.44602
2.7924	0.44569
2.7939	0.44534
2.7954	0.44493
2.7969	0.44467
2.7984	0.44436
2.7999	0.44407
2.8014	0.44385
2.8029	0.44377
2.8044	0.44350
2.806	0.44312
2.8075	0.44287
2.809	0.44262
2.8105	0.44233
2.8121	0.44216
2.8136	0.44209
2.8151	0.44190
2.8166	0.44159
2.8182	0.44142
2.8197	0.44127
2.8212	0.44106
2.8228	0.44087
2.8243	0.44082
2.8259	0.44063
2.8274	0.44035
2.8289	0.44017
2.8305	0.44012
2.832	0.44002
2.8336	0.43992
2.8351	0.43981
2.8367	0.43964
2.8382	0.43951
2.8398	0.43947
2.8413	0.43941
2.8429	0.43933
2.8444	0.43921
2.846	0.43906
2.8476	0.43889
2.8491	0.43879
2.8507	0.43864
2.8523	0.43856
2.8538	0.43857
2.8554	0.43845
2.857	0.43834
2.8586	0.43830
2.8601	0.43820
2.8617	0.43808
2.8633	0.43801
2.8649	0.43798
2.8665	0.43796
2.8681	0.43787
2.8696	0.43778
2.8712	0.43771
2.8728	0.43764
2.8744	0.43750
2.876	0.43742
2.8776	0.43740
2.8792	0.43738
2.8808	0.43723
2.8824	0.43699
2.884	0.43696
2.8856	0.43699
2.8872	0.43697
2.8888	0.43694
2.8904	0.43696
2.892	0.43700
2.8937	0.43696
2.8953	0.43688
2.8969	0.43686
2.8985	0.43688
2.9001	0.43686
2.9018	0.43679
2.9034	0.43679
2.905	0.43676
2.9066	0.43670
2.9083	0.43656
2.9099	0.43636
2.9115	0.43629
2.9132	0.43638
2.9148	0.43642
2.9164	0.43645
2.9181	0.43650
2.9197	0.43655
2.9214	0.43657
2.923	0.43658
2.9247	0.43660
2.9263	0.43659
2.928	0.43652
2.9296	0.43656
2.9313	0.43660
2.9329	0.43659
2.9346	0.43658
2.9363	0.43668
2.9379	0.43676
2.9396	0.43664
2.9413	0.43654
2.9429	0.43672
2.9446	0.43689
2.9463	0.43690
2.9479	0.43671
2.9496	0.43670
2.9513	0.43695
2.953	0.43703
2.9547	0.43706
2.9564	0.43713
2.958	0.43723
2.9597	0.43723
2.9614	0.43722
2.9631	0.43730
2.9648	0.43736
2.9665	0.43730
2.9682	0.43724
2.9699	0.43739
2.9716	0.43765
2.9733	0.43780
2.975	0.43784
2.9767	0.43790
2.9784	0.43805
2.9801	0.43822
2.9818	0.43831
2.9836	0.43830
2.9853	0.43833
2.987	0.43851
2.9887	0.43870
2.9904	0.43883
2.9922	0.43893
2.9939	0.43902
2.9956	0.43914
2.9974	0.43941
2.9991	0.43952
3.0008	0.43969
3.0026	0.43985
3.0043	0.43999
3.0061	0.44015
3.0078	0.44035
3.0095	0.44053
3.0113	0.44072
3.013	0.44090
3.0148	0.44107
3.0165	0.44125
3.0183	0.44144
3.0201	0.44158
3.0218	0.44165
3.0236	0.44159
3.0253	0.44161
3.0271	0.44194
3.0289	0.44235
3.0306	0.44257
3.0324	0.44273
3.0342	0.44285
3.036	0.44298
3.0377	0.44311
3.0395	0.44339
3.0413	0.44366
3.0431	0.44386
3.0449	0.44404
3.0467	0.44424
3.0485	0.44439
3.0503	0.44451
3.0521	0.44468
3.0538	0.44494
3.0556	0.44508
3.0574	0.44509
3.0593	0.44537
3.0611	0.44567
3.0629	0.44593
3.0647	0.44619
3.0665	0.44639
3.0683	0.44658
3.0701	0.44672
3.0719	0.44691
3.0738	0.44718
3.0756	0.44740
3.0774	0.44760
3.0792	0.44775
3.0811	0.44790
3.0829	0.44817
3.0847	0.44844
3.0866	0.44869
3.0884	0.44891
3.0902	0.44906
3.0921	0.44918
3.0939	0.44950
3.0958	0.44985
3.0976	0.45006
3.0995	0.45027
3.1013	0.45054
3.1032	0.45078
3.1051	0.45101
3.1069	0.45121
3.1088	0.45150
3.1106	0.45177
3.1125	0.45199
3.1144	0.45221
3.1162	0.45248
3.1181	0.45276
3.12	0.45305
3.1219	0.45326
3.1238	0.45351
3.1256	0.45384
3.1275	0.45411
3.1294	0.45439
3.1313	0.45466
3.1332	0.45495
3.1351	0.45527
3.137	0.45557
3.1389	0.45581
3.1408	0.45608
3.1427	0.45640
3.1446	0.45671
3.1465	0.45700
3.1484	0.45733
3.1503	0.45766
3.1522	0.45801
3.1541	0.45831
3.1561	0.45855
3.158	0.45881
3.1599	0.45908
3.1619	0.45935
3.1638	0.45964
3.1657	0.45997
3.1676	0.46028
3.1696	0.46049
3.1715	0.46059
3.1735	0.46094
3.1754	0.46150
3.1773	0.46183
3.1793	0.46209
3.1812	0.46241
3.1832	0.46266
3.1851	0.46282
3.1871	0.46311
3.1891	0.46345
3.191	0.46375
3.193	0.46402
3.195	0.46424
3.1969	0.46456
3.1989	0.46490
3.2009	0.46514
3.2029	0.46528
3.2048	0.46535
3.2068	0.46556
3.2088	0.46583
3.2108	0.46624
3.2128	0.46674
3.2148	0.46699
3.2168	0.46713
3.2188	0.46743
3.2208	0.46779
3.2228	0.46803
3.2248	0.46823
3.2268	0.46844
3.2288	0.46873
3.2308	0.46903
3.2328	0.46927
3.2348	0.46938
3.2369	0.46956
3.2389	0.46983
3.2409	0.46999
3.2429	0.47011
3.2449	0.47032
3.247	0.47043
3.249	0.47069
3.2511	0.47114
3.2531	0.47156
3.2551	0.47179
3.2572	0.47197
3.2592	0.47211
3.2613	0.47229
3.2633	0.47257
3.2654	0.47283
3.2674	0.47310
3.2695	0.47342
3.2716	0.47364
3.2736	0.47389
3.2757	0.47417
3.2778	0.47441
3.2798	0.47470
3.2819	0.47496
3.284	0.47512
3.2861	0.47534
3.2882	0.47560
3.2902	0.47596
3.2923	0.47624
3.2944	0.47641
3.2965	0.47650
3.2986	0.47673
3.3007	0.47702
3.3028	0.47729
3.3049	0.47743
3.307	0.47766
3.3091	0.47803
3.3113	0.47833
3.3134	0.47850
3.3155	0.47866
3.3176	0.47874
3.3197	0.47888
3.3219	0.47915
3.324	0.47947
3.3261	0.47965
3.3283	0.47983
3.3304	0.47995
3.3325	0.48014
3.3347	0.48028
3.3368	0.48044
3.339	0.48056
3.3411	0.48053
3.3433	0.48055
3.3454	0.48067
3.3476	0.48062
3.3498	0.48052
3.3519	0.48026
3.3541	0.47993
3.3563	0.47963
3.3584	0.47937
3.3606	0.47891
3.3628	0.47832
3.365	0.47767
3.3672	0.47692
3.3694	0.47613
3.3715	0.47554
3.3737	0.47514
3.3759	0.47497
3.3781	0.47522
3.3803	0.47584
3.3825	0.47649
3.3847	0.47714
3.3869	0.47770
3.3892	0.47806
3.3914	0.47801
3.3936	0.47754
3.3958	0.47686
3.3981	0.47605
3.4003	0.47514
3.4025	0.47410
3.4047	0.47295
3.407	0.47183
3.4092	0.47085
3.4115	0.47011
3.4137	0.46963
3.416	0.46969
3.4182	0.47031
3.4205	0.47144
3.4227	0.47304
3.425	0.47485
3.4273	0.47658
3.4295	0.47816
3.4318	0.47940
3.4341	0.48060
3.4363	0.48170
3.4386	0.48264
3.4409	0.48342
3.4432	0.48417
3.4455	0.48492
3.4478	0.48560
3.4501	0.48621
3.4523	0.48681
3.4546	0.48738
3.4569	0.48793
3.4593	0.48841
3.4616	0.48887
3.4639	0.48918
3.4662	0.48932
3.4685	0.48931
3.4708	0.48925
3.4732	0.48920
3.4755	0.48922
3.4778	0.48922
3.4801	0.48927
3.4825	0.48947
3.4848	0.48961
3.4872	0.48945
3.4895	0.48918
3.4919	0.48870
3.4942	0.48814
3.4966	0.48752
3.4989	0.48721
3.5013	0.48736
3.5037	0.48810
3.506	0.48945
3.5084	0.49107
3.5108	0.49261
3.5132	0.49400
3.5155	0.49522
3.5179	0.49628
3.5203	0.49702
3.5227	0.49760
3.5251	0.49820
3.5275	0.49875
3.5299	0.49916
3.5323	0.49956
3.5347	0.49992
3.5371	0.50023
3.5395	0.50048
3.5419	0.50072
3.5444	0.50095
3.5468	0.50119
3.5492	0.50143
3.5517	0.50169
3.5541	0.50188
3.5565	0.50208
3.559	0.50229
3.5614	0.50256
3.5639	0.50276
3.5663	0.50300
3.5688	0.50321
3.5712	0.50338
3.5737	0.50352
3.5761	0.50380
3.5786	0.50402
3.5811	0.50420
3.5836	0.50435
3.586	0.50453
3.5885	0.50476
3.591	0.50502
3.5935	0.50515
3.596	0.50534
3.5985	0.50554
3.601	0.50570
3.6035	0.50585
3.606	0.50608
3.6085	0.50627
3.611	0.50646
3.6135	0.50661
3.6161	0.50677
3.6186	0.50692
3.6211	0.50705
3.6236	0.50721
3.6262	0.50743
3.6287	0.50760
3.6313	0.50780
3.6338	0.50796
3.6363	0.50806
3.6389	0.50817
3.6414	0.50836
3.644	0.50856
3.6466	0.50872
3.6491	0.50883
3.6517	0.50898
3.6543	0.50911
3.6569	0.50928
3.6594	0.50939
3.662	0.50953
3.6646	0.50970
3.6672	0.50982
3.6698	0.50995
3.6724	0.51016
3.675	0.51031
3.6776	0.51046
3.6802	0.51058
3.6828	0.51074
3.6854	0.51088
3.6881	0.51105
3.6907	0.51121
3.6933	0.51138
3.6959	0.51150
3.6986	0.51170
3.7012	0.51185
3.7039	0.51195
3.7065	0.51203
3.7092	0.51219
3.7118	0.51234
3.7145	0.51248
3.7171	0.51256
3.7198	0.51271
3.7225	0.51283
3.7252	0.51295
3.7278	0.51307
3.7305	0.51324
3.7332	0.51334
3.7359	0.51345
3.7386	0.51357
3.7413	0.51374
3.744	0.51385
3.7467	0.51400
3.7494	0.51415
3.7521	0.51429
3.7548	0.51436
3.7576	0.51451
3.7603	0.51463
3.763	0.51478
3.7657	0.51482
3.7685	0.51490
3.7712	0.51501
3.774	0.51515
3.7767	0.51520
3.7795	0.51530
3.7822	0.51543
3.785	0.51555
3.7877	0.51561
3.7905	0.51569
3.7933	0.51574
3.7961	0.51582
3.7988	0.51588
3.8016	0.51594
3.8044	0.51601
3.8072	0.51610
3.81	0.51615
3.8128	0.51625
3.8156	0.51629
3.8184	0.51633
3.8212	0.51640
3.8241	0.51649
3.8269	0.51653
3.8297	0.51661
3.8325	0.51667
3.8354	0.51671
3.8382	0.51676
3.8411	0.51688
3.8439	0.51692
3.8468	0.51694
3.8496	0.51695
3.8525	0.51704
3.8553	0.51711
3.8582	0.51718
3.8611	0.51717
3.8639	0.51722
3.8668	0.51727
3.8697	0.51732
3.8726	0.51728
3.8755	0.51734
3.8784	0.51733
3.8813	0.51736
3.8842	0.51742
3.8871	0.51746
3.89	0.51742
3.893	0.51748
3.8959	0.51753
3.8988	0.51755
3.9017	0.51751
3.9047	0.51751
3.9076	0.51752
3.9106	0.51757
3.9135	0.51754
3.9165	0.51756
3.9194	0.51756
3.9224	0.51754
3.9254	0.51749
3.9284	0.51753
3.9313	0.51750
3.9343	0.51750
3.9373	0.51751
3.9403	0.51753
3.9433	0.51751
3.9463	0.51755
3.9493	0.51754
3.9523	0.51755
3.9553	0.51749
3.9583	0.51747
3.9614	0.51748
3.9644	0.51749
3.9674	0.51741
3.9705	0.51739
3.9735	0.51737
3.9766	0.51739
3.9796	0.51732
3.9826	0.51731
3.9857	0.51727
3.9888	0.51725
3.9919	0.51718
3.9949	0.51714
3.998	0.51705
4.0011	0.51702
4.0042	0.51698
4.0073	0.51698
4.0104	0.51695
4.0135	0.51694
4.0166	0.51685
4.0197	0.51681
4.0228	0.51675
4.0259	0.51675
4.0291	0.51668
4.0322	0.51664
4.0353	0.51660
4.0385	0.51660
4.0416	0.51655
4.0448	0.51652
4.0479	0.51648
4.0511	0.51646
4.0543	0.51639
4.0574	0.51635
4.0606	0.51624
4.0638	0.51621
4.067	0.51614
4.0702	0.51604
4.0734	0.51596
4.0766	0.51595
4.0798	0.51587
4.083	0.51586
4.0862	0.51579
4.0894	0.51572
4.0927	0.51560
4.0959	0.51554
4.0991	0.51539
4.1024	0.51537
4.1056	0.51531
4.1089	0.51523
4.1121	0.51515
4.1154	0.51507
4.1187	0.51494
4.122	0.51485
4.1252	0.51473
4.1285	0.51469
4.1318	0.51460
4.1351	0.51451
4.1384	0.51435
4.1417	0.51427
4.145	0.51413
4.1483	0.51401
4.1516	0.51384
4.155	0.51377
4.1583	0.51366
4.1616	0.51355
4.165	0.51345
4.1683	0.51340
4.1717	0.51325
4.175	0.51311
4.1784	0.51292
4.1818	0.51281
4.1852	0.51265
4.1885	0.51250
4.1919	0.51223
4.1953	0.51191
4.1987	0.51155
4.2021	0.51113
4.2055	0.51055
4.2089	0.50996
4.2124	0.50929
4.2158	0.50867
4.2192	0.50809
4.2226	0.50763
4.2261	0.50710
4.2295	0.50669
4.233	0.50631
4.2365	0.50605
4.2399	0.50566
4.2434	0.50541
4.2469	0.50524
4.2503	0.50533
4.2538	0.50550
4.2573	0.50557
4.2608	0.50478
4.2643	0.50376
4.2678	0.50296
4.2714	0.50241
4.2749	0.50187
4.2784	0.50136
4.2819	0.50074
4.2855	0.50019
4.289	0.49947
4.2926	0.49879
4.2961	0.49807
4.2997	0.49745
4.3033	0.49675
4.3068	0.49614
4.3104	0.49555
4.314	0.49509
4.3176	0.49460
4.3212	0.49416
4.3248	0.49362
4.3284	0.49318
4.332	0.49269
4.3356	0.49225
4.3393	0.49172
4.3429	0.49128
4.3465	0.49074
4.3502	0.49023
4.3538	0.48966
4.3575	0.48914
4.3611	0.48855
4.3648	0.48805
4.3685	0.48752
4.3722	0.48701
4.3759	0.48650
4.3796	0.48603
4.3833	0.48549
4.387	0.48501
4.3907	0.48449
4.3944	0.48403
4.3981	0.48362
4.4019	0.48331
4.4056	0.48293
4.4094	0.48266
4.4131	0.48234
4.4169	0.48205
4.4206	0.48177
4.4244	0.48160
4.4282	0.48141
4.432	0.48128
4.4358	0.48107
4.4396	0.48088
4.4434	0.48065
4.4472	0.48048
4.451	0.48023
4.4548	0.47997
4.4586	0.47963
4.4625	0.47944
4.4663	0.47912
4.4702	0.47874
4.474	0.47826
4.4779	0.47782
4.4818	0.47728
4.4856	0.47684
4.4895	0.47632
4.4934	0.47575
4.4973	0.47508
4.5012	0.47448
4.5051	0.47380
4.509	0.47316
4.513	0.47244
4.5169	0.47173
4.5208	0.47095
4.5248	0.47020
4.5287	0.46936
4.5327	0.46854
4.5367	0.46758
4.5406	0.46667
4.5446	0.46564
4.5486	0.46467
4.5526	0.46366
4.5566	0.46266
4.5606	0.46159
4.5646	0.46057
4.5686	0.45941
4.5727	0.45829
4.5767	0.45711
4.5808	0.45595
4.5848	0.45461
4.5889	0.45334
4.5929	0.45201
4.597	0.45068
4.6011	0.44925
4.6052	0.44783
4.6093	0.44632
4.6134	0.44482
4.6175	0.44322
4.6216	0.44165
4.6257	0.44000
4.6298	0.43844
4.634	0.43684
4.6381	0.43532
4.6423	0.43381
4.6464	0.43242
4.6506	0.43105
4.6548	0.42982
4.659	0.42862
4.6631	0.42751
4.6673	0.42635
4.6715	0.42526
4.6758	0.42408
4.68	0.42295
4.6842	0.42171
4.6884	0.42052
4.6927	0.41928
4.6969	0.41812
4.7012	0.41683
4.7055	0.41558
4.7097	0.41430
4.714	0.41306
4.7183	0.41177
4.7226	0.41050
4.7269	0.40919
4.7312	0.40793
4.7355	0.40663
4.7399	0.40540
4.7442	0.40413
4.7485	0.40294
4.7529	0.40173
4.7573	0.40065
4.7616	0.39954
4.766	0.39849
4.7704	0.39739
4.7748	0.39640
4.7792	0.39535
4.7836	0.39443
4.788	0.39345
4.7924	0.39249
4.7969	0.39143
4.8013	0.39042
4.8058	0.38928
4.8102	0.38820
4.8147	0.38704
4.8191	0.38593
4.8236	0.38474
4.8281	0.38358
4.8326	0.38231
4.8371	0.38111
4.8416	0.37987
4.8462	0.37867
4.8507	0.37739
4.8553	0.37613
4.8598	0.37481
4.8644	0.37357
4.8689	0.37224
4.8735	0.37094
4.8781	0.36956
4.8827	0.36825
4.8873	0.36693
4.8919	0.36561
4.8965	0.36418
4.9011	0.36282
4.9058	0.36137
4.9104	0.35996
4.9151	0.35847
4.9197	0.35705
4.9244	0.35558
4.9291	0.35421
4.9338	0.35277
4.9385	0.35141
4.9432	0.34997
4.9479	0.34859
4.9526	0.34717
4.9574	0.34580
4.9621	0.34437
4.9669	0.34301
4.9716	0.34162
4.9764	0.34027
4.9812	0.33881
4.986	0.33746
4.9908	0.33607
4.9956	0.33472
5.0004	0.33325
5.0052	0.33184
5.01	0.33040
5.0149	0.32899
5.0198	0.32747
5.0246	0.32602
5.0295	0.32456
5.0344	0.32316
5.0393	0.32173
5.0442	0.32041
5.0491	0.31907
5.054	0.31778
5.0589	0.31645
5.0639	0.31522
5.0688	0.31400
5.0738	0.31286
5.0788	0.31164
5.0837	0.31048
5.0887	0.30924
5.0937	0.30806
5.0987	0.30682
5.1037	0.30562
5.1088	0.30428
5.1138	0.30294
5.1189	0.30149
5.1239	0.30007
5.129	0.29855
5.1341	0.29706
5.1391	0.29547
5.1443	0.29393
5.1494	0.29237
5.1545	0.29083
5.1596	0.28932
5.1647	0.28791
5.1699	0.28646
5.175	0.28509
5.1802	0.28373
5.1854	0.28249
5.1906	0.28126
5.1958	0.28011
5.201	0.27889
5.2062	0.27772
5.2115	0.27657
5.2167	0.27545
5.222	0.27427
5.2272	0.27317
5.2325	0.27201
5.2378	0.27089
5.2431	0.26969
5.2484	0.26852
5.2537	0.26729
5.259	0.26607
5.2644	0.26481
5.2697	0.26361
5.2751	0.26236
5.2805	0.26115
5.2858	0.25995
5.2912	0.25896
5.2966	0.25792
5.302	0.25698
5.3075	0.25604
5.3129	0.25517
5.3184	0.25433
5.3238	0.25362
5.3293	0.25287
5.3348	0.25214
5.3403	0.25134
5.3458	0.25055
5.3513	0.24958
5.3568	0.24852
5.3624	0.24742
5.3679	0.24634
5.3735	0.24513
5.379	0.24395
5.3846	0.24276
5.3902	0.24158
5.3958	0.24036
5.4015	0.23925
5.4071	0.23815
5.4127	0.23716
5.4184	0.23630
5.4241	0.23545
5.4297	0.23449
5.4354	0.23380
5.4411	0.23322
5.4469	0.23277
5.4526	0.23231
5.4583	0.23206
5.4641	0.23195
5.4698	0.23189
5.4756	0.23188
5.4814	0.23197
5.4872	0.23204
5.493	0.23225
5.4988	0.23245
5.5047	0.23276
5.5105	0.23298
5.5164	0.23331
5.5223	0.23360
5.5281	0.23392
5.534	0.23416
5.54	0.23443
5.5459	0.23461
5.5518	0.23479
5.5578	0.23475
5.5637	0.23467
5.5697	0.23450
5.5757	0.23434
5.5817	0.23390
5.5877	0.23330
5.5937	0.23262
5.5998	0.23205
5.6058	0.23128
5.6119	0.23052
5.618	0.22969
5.6241	0.22884
5.6302	0.22796
5.6363	0.22724
5.6424	0.22640
5.6486	0.22548
5.6547	0.22459
5.6609	0.22381
5.6671	0.22307
5.6733	0.22256
5.6795	0.22195
5.6857	0.22143
5.692	0.22091
5.6982	0.22039
5.7045	0.21987
5.7108	0.21944
5.7171	0.21872
5.7234	0.21801
5.7297	0.21718
5.736	0.21641
5.7424	0.21546
5.7488	0.21452
5.7551	0.21333
5.7615	0.21245
5.768	0.21126
5.7744	0.20977
5.7808	0.20833
5.7873	0.20689
5.7937	0.20536
5.8002	0.20394
5.8067	0.20233
5.8132	0.20093
5.8197	0.19951
5.8263	0.19781
5.8328	0.19606
5.8394	0.19447
5.846	0.19274
5.8526	0.19115
5.8592	0.18953
5.8658	0.18789
5.8725	0.18627
5.8791	0.18495
5.8858	0.18305
5.8925	0.18153
5.8992	0.17984
5.9059	0.17800
5.9126	0.17639
5.9194	0.17483
5.9262	0.17330
5.9329	0.17199
5.9397	0.17023
5.9465	0.16840
5.9534	0.16671
5.9602	0.16514
5.9671	0.16361
5.974	0.16200
5.9808	0.16050
5.9878	0.15920
5.9947	0.15774
6.0016	0.15647
6.0086	0.15540
6.0155	0.15444
6.0225	0.15350
6.0295	0.15290
6.0365	0.15246
6.0436	0.15239
6.0506	0.15227
6.0577	0.15183
6.0648	0.15171
6.0719	0.15186
6.079	0.15184
6.0861	0.15178
6.0933	0.15173
6.1005	0.15173
6.1076	0.15176
6.1148	0.15172
6.1221	0.15140
6.1293	0.15115
6.1365	0.15093
6.1438	0.15079
6.1511	0.15058
6.1584	0.15048
6.1657	0.15030
6.1731	0.15014
6.1804	0.15013
6.1878	0.15010
6.1952	0.14990
6.2026	0.14989
6.21	0.14986
6.2175	0.14983
6.225	0.14978
6.2324	0.14972
6.2399	0.14965
6.2475	0.14961
6.255	0.14952
6.2625	0.14948
6.2701	0.14938
6.2777	0.14924
6.2853	0.14909
6.2929	0.14893
6.3006	0.14884
6.3083	0.14878
6.3159	0.14870
6.3236	0.14874
6.3314	0.14883
6.3391	0.14912
6.3469	0.14943
6.3546	0.14958
6.3624	0.14989
6.3703	0.15037
6.3781	0.15069
6.3859	0.15099
6.3938	0.15129
6.4017	0.15157
6.4096	0.15200
6.4176	0.15214
6.4255	0.15187
6.4335	0.15166
6.4415	0.15135
6.4495	0.15107
6.4575	0.15075
6.4656	0.15043
6.4736	0.15012
6.4817	0.14987
6.4898	0.14964
6.498	0.14919
6.5061	0.14865
6.5143	0.14844
6.5225	0.14817
6.5307	0.14778
6.5389	0.14747
6.5472	0.14718
6.5555	0.14682
6.5638	0.14652
6.5721	0.14626
6.5804	0.14578
6.5888	0.14528
6.5972	0.14487
6.6056	0.14446
6.614	0.14417
6.6225	0.14394
6.6309	0.14390
6.6394	0.14374
6.6479	0.14337
6.6565	0.14317
6.665	0.14315
6.6736	0.14313
6.6822	0.14309
6.6908	0.14301
6.6995	0.14300
6.7081	0.14306
6.7168	0.14307
6.7255	0.14289
6.7343	0.14266
6.743	0.14239
6.7518	0.14211
6.7606	0.14175
6.7694	0.14139
6.7783	0.14096
6.7871	0.14054
6.796	0.13995
6.805	0.13931
6.8139	0.13879
6.8229	0.13844
6.8319	0.13805
6.8409	0.13771
6.8499	0.13749
6.859	0.13736
6.868	0.13698
6.8772	0.13654
6.8863	0.13624
6.8955	0.13603
6.9046	0.13578
6.9138	0.13545
6.9231	0.13509
6.9323	0.13474
6.9416	0.13432
6.9509	0.13399
6.9602	0.13355
6.9696	0.13289
6.979	0.13227
6.9884	0.13168
6.9978	0.13101
7.0073	0.13033
7.0168	0.12961
7.0263	0.12890
7.0358	0.12819
7.0454	0.12748
7.0549	0.12660
7.0645	0.12580
7.0742	0.12503
7.0839	0.12430
7.0935	0.12354
7.1033	0.12280
7.113	0.12199
7.1228	0.12120
7.1326	0.12037
7.1424	0.11956
7.1522	0.11865
7.1621	0.11773
7.172	0.11671
7.182	0.11568
7.1919	0.11465
7.2019	0.11362
7.2119	0.11247
7.222	0.11135
7.232	0.11026
7.2421	0.10920
7.2523	0.10808
7.2624	0.10705
7.2726	0.10601
7.2828	0.10490
7.2931	0.10377
7.3033	0.10267
7.3136	0.10148
7.324	0.10034
7.3343	0.09913
7.3447	0.09790
7.3551	0.09658
7.3656	0.09529
7.3761	0.09393
7.3866	0.09263
7.3971	0.09129
7.4077	0.08995
7.4183	0.08858
7.4289	0.08721
7.4396	0.08579
7.4503	0.08445
7.461	0.08306
7.4717	0.08168
7.4825	0.08024
7.4933	0.07894
7.5041	0.07758
7.515	0.07616
7.5259	0.07475
7.5369	0.07341
7.5479	0.07202
7.5589	0.07070
7.5699	0.06932
7.581	0.06796
7.592	0.06658
7.6032	0.06529
7.6144	0.06390
7.6255	0.06255
7.6368	0.06111
7.648	0.05970
7.6593	0.05825
7.6707	0.05683
7.682	0.05528
7.6934	0.05380
7.7049	0.05227
7.7163	0.05075
7.7278	0.04919
7.7394	0.04775
7.7509	0.04626
7.7625	0.04478
7.7742	0.04322
7.7858	0.04175
7.7975	0.04025
7.8093	0.03890
7.8211	0.03748
7.8329	0.03612
7.8447	0.03467
7.8566	0.03329
7.8685	0.03190
7.8805	0.03063
7.8925	0.02928
7.9045	0.02803
7.9166	0.02678
7.9287	0.02563
7.9408	0.02442
7.953	0.02337
7.9652	0.02230
7.9775	0.02125
7.9898	0.02028
8.0021	0.01945
8.0145	0.01857
8.0269	0.01783
8.0393	0.01709
8.0518	0.01649
8.0643	0.01589
8.0769	0.01547
8.0895	0.01504
8.1021	0.01467
8.1148	0.01435
8.1275	0.01428
8.1403	0.01419
8.1531	0.01425
8.1659	0.01439
8.1788	0.01477
8.1917	0.01526
8.2047	0.01595
8.2177	0.01672
8.2307	0.01777
8.2438	0.01896
8.257	0.02036
8.2701	0.02193
8.2833	0.02367
8.2966	0.02538
8.3099	0.02726
8.3232	0.02915
8.3366	0.03108
8.35	0.03291
8.3635	0.03464
8.377	0.03622
8.3905	0.03785
8.4042	0.03944
8.4178	0.04104
8.4315	0.04255
8.4452	0.04406
8.459	0.04532
8.4728	0.04641
8.4867	0.04727
8.5006	0.04802
8.5145	0.04870
8.5285	0.04943
8.5426	0.05010
8.5567	0.05077
8.5708	0.05136
8.585	0.05187
8.5993	0.05224
8.6135	0.05261
8.6279	0.05288
8.6423	0.05310
8.6567	0.05328
8.6712	0.05350
8.6857	0.05365
8.7003	0.05381
8.7149	0.05393
8.7295	0.05403
8.7443	0.05404
8.759	0.05393
8.7739	0.05365
8.7887	0.05338
8.8037	0.05311
8.8186	0.05289
8.8337	0.05276
8.8487	0.05273
8.8638	0.05263
8.879	0.05256
8.8943	0.05249
8.9095	0.05246
8.9249	0.05234
8.9403	0.05220
8.9557	0.05207
8.9712	0.05200
8.9868	0.05195
9.0023	0.05187
9.018	0.05173
9.0337	0.05149
9.0495	0.05108
9.0653	0.05061
9.0812	0.05003
9.0971	0.04935
9.1131	0.04849
9.1291	0.04762
9.1452	0.04674
9.1614	0.04591
9.1776	0.04516
9.1939	0.04458
9.2102	0.04422
9.2266	0.04410
9.243	0.04401
9.2595	0.04398
9.2761	0.04392
9.2927	0.04389
9.3094	0.04383
9.3262	0.04390
9.343	0.04403
9.3598	0.04435
9.3768	0.04472
9.3938	0.04513
9.4108	0.04568
9.4279	0.04641
9.4451	0.04725
9.4623	0.04825
9.4796	0.04938
9.497	0.05070
9.5144	0.05211
9.5319	0.05358
9.5494	0.05505
9.567	0.05639
9.5847	0.05753
9.6025	0.05860
9.6203	0.05952
9.6382	0.06033
9.6561	0.06094
9.6742	0.06141
9.6922	0.06174
9.7104	0.06190
9.7286	0.06195
9.7469	0.06198
9.7652	0.06190
9.7837	0.06177
9.8022	0.06138
9.8207	0.06084
9.8394	0.06029
9.8581	0.05987
9.8768	0.05963
9.8957	0.05958
9.9146	0.05970
9.9336	0.06002
9.9527	0.06055
9.9718	0.06134
9.991	0.06214
10.0103	0.06279
10.0297	0.06342
10.0491	0.06417
10.0686	0.06498
10.0882	0.06590
10.1079	0.06675
10.1276	0.06736
10.1475	0.06780
10.1673	0.06817
10.1873	0.06852
10.2074	0.06919
10.2275	0.07022
10.2477	0.07166
10.268	0.07347
10.2884	0.07552
10.3088	0.07756
10.3294	0.07930
10.35	0.08091
10.3707	0.08256
10.3915	0.08428
10.4123	0.08601
10.4333	0.08747
10.4543	0.08858
10.4754	0.08950
10.4967	0.09050
10.5179	0.09147
10.5393	0.09219
10.5608	0.09257
10.5823	0.09291
10.604	0.09341
10.6257	0.09387
10.6475	0.09408
10.6694	0.09409
10.6914	0.09405
10.7135	0.09420
10.7357	0.09431
10.758	0.09417
10.7803	0.09357
10.8028	0.09263
10.8254	0.09153
10.848	0.09034
10.8708	0.08906
10.8936	0.08780
10.9165	0.08680
10.9395	0.08589
10.9627	0.08478
10.9859	0.08358
11.0092	0.08254
11.0327	0.08167
11.0562	0.08060
11.0798	0.07940
11.1035	0.07819
11.1274	0.07695
11.1513	0.07569
11.1753	0.07453
11.1995	0.07329
11.2237	0.07178
11.248	0.07027
11.2725	0.06879
11.2971	0.06728
11.3217	0.06588
11.3465	0.06457
11.3714	0.06330
11.3964	0.06195
11.4215	0.06078
11.4467	0.05967
11.472	0.05856
11.4975	0.05741
11.523	0.05632
11.5487	0.05532
11.5744	0.05446
11.6003	0.05361
11.6263	0.05280
11.6525	0.05208
11.6787	0.05147
11.7051	0.05092
11.7316	0.05046
11.7582	0.04996
11.7849	0.04944
11.8117	0.04892
11.8387	0.04849
11.8658	0.04831
11.893	0.04827
11.9203	0.04824
11.9478	0.04821
11.9754	0.04813
12.0031	0.04801
12.031	0.04792
12.059	0.04786
12.0871	0.04772
12.1153	0.04762
12.1437	0.04759
12.1722	0.04765
12.2008	0.04759
12.2296	0.04746
12.2585	0.04728
12.2876	0.04700
12.3168	0.04666
12.3461	0.04634
12.3755	0.04589
12.4052	0.04532
12.4349	0.04451
12.4648	0.04356
12.4948	0.04259
12.525	0.04171
12.5553	0.04072
12.5858	0.03960
12.6164	0.03847
12.6472	0.03724
12.6781	0.03597
12.7092	0.03479
12.7404	0.03358
12.7718	0.03250
12.8033	0.03148
12.835	0.03066
12.8669	0.03037
12.8989	0.03038
12.9311	0.03051
12.9634	0.03089
12.9959	0.03114
13.0285	0.03121
13.0613	0.03123
13.0943	0.03159
13.1275	0.03225
13.1608	0.03283
13.1943	0.03309
13.228	0.03301
13.2618	0.03274
13.2958	0.03251
13.33	0.03200
13.3643	0.03145
13.3988	0.03099
13.4336	0.03060
13.4685	0.03014
13.5035	0.02982
13.5388	0.02965
13.5742	0.02979
13.6099	0.02989
13.6457	0.03010
13.6817	0.03058
13.7179	0.03137
13.7543	0.03191
13.7908	0.03206
13.8276	0.03182
13.8646	0.03144
13.9018	0.03109
13.9392	0.03078
13.9767	0.03011
14.0145	0.02964
14.0525	0.02936
14.0907	0.02887
14.129	0.02827
14.1676	0.02793
14.2065	0.02767
14.2455	0.02759
14.2847	0.02742
14.3242	0.02714
14.3639	0.02687
14.4038	0.02676
14.4439	0.02688
14.4843	0.02726
14.5248	0.02769
14.5656	0.02794
14.6067	0.02769
14.6479	0.02738
14.6894	0.02728
14.7312	0.02724
14.7731	0.02693
14.8153	0.02675
14.8578	0.02701
14.9005	0.02762
14.9434	0.02842
14.9866	0.02930
15.03	0.02949
15.0737	0.02954
15.1177	0.02939
15.1619	0.02911
15.2063	0.02891
15.2511	0.02930
15.2961	0.03046
15.3413	0.03226
15.3868	0.03421
15.4326	0.03651
15.4787	0.03888
15.525	0.04106
15.5717	0.04291
15.6186	0.04464
15.6658	0.04593
15.7132	0.04708
15.761	0.04814
15.809	0.04903
15.8574	0.04986
15.906	0.05092
15.955	0.05166
16.0042	0.05211
16.0538	0.05208
16.1036	0.05118
16.1538	0.04992
16.2043	0.04905
16.2551	0.04845
16.3062	0.04836
16.3576	0.04913
16.4094	0.05067
16.4615	0.05210
16.5139	0.05359
16.5667	0.05476
16.6198	0.05511
16.6732	0.05548
16.727	0.05619
16.7811	0.05688
16.8356	0.05837
16.8905	0.06001
16.9457	0.06104
17.0012	0.06193
17.0572	0.06217
17.1134	0.06169
17.1701	0.06114
17.2272	0.06017
17.2846	0.05875
17.3424	0.05747
17.4006	0.05697
17.4592	0.05721
17.5182	0.05776
17.5775	0.05829
17.6373	0.05869
17.6975	0.05854
17.7581	0.05774
17.8192	0.05655
17.8806	0.05521
17.9425	0.05415
18.0048	0.05372
18.0675	0.05392
18.1307	0.05521
18.1943	0.05718
18.2584	0.05960
18.3229	0.06223
18.3879	0.06446
18.4533	0.06614
18.5192	0.06700
18.5856	0.06624
18.6524	0.06484
18.7198	0.06326
18.7876	0.06134
18.8559	0.05955
18.9247	0.05809
18.9941	0.05652
19.0639	0.05553
19.1342	0.05524
19.2051	0.05537
19.2765	0.05542
19.3484	0.05512
19.4209	0.05487
19.4939	0.05467
19.5675	0.05457
19.6416	0.05428
19.7163	0.05400
19.7915	0.05354
19.8673	0.05292
19.9438	0.05230
20.0208	0.05146
20.0984	0.05062
20.1766	0.05018
20.2554	0.04948
20.3348	0.04888
20.4149	0.04946
20.4956	0.05104
20.5769	0.05186
20.6589	0.05251
20.7415	0.05241
20.8248	0.05165
20.9088	0.05074
20.9934	0.05036
21.0788	0.04987
21.1648	0.05073
21.2516	0.05204
21.339	0.05249
21.4272	0.05218
21.5161	0.05143
21.6058	0.05075
21.6962	0.05046
21.7873	0.04994
21.8793	0.05028
21.972	0.05040
22.0655	0.04958
22.1597	0.04892
22.2548	0.04755
22.3508	0.04691
22.4475	0.04637
22.5451	0.04648
22.6436	0.04753
22.7429	0.04971
22.8431	0.05270
22.9442	0.05556
23.0462	0.05799
23.149	0.06102
23.2528	0.06654
23.3576	0.07025
23.4633	0.07120
23.5699	0.07199
23.6775	0.07250
23.7861	0.07226
23.8958	0.07282
24.0064	0.07342
24.118	0.07337
24.2307	0.07412
24.3445	0.07541
24.4594	0.07717
24.5753	0.07756
24.6923	0.07702
24.8104	0.07955
24.9297	0.08118
25.0502	0.08455